! Data file : C:\Users\bhowa\Downloads\Fw_ LSCO Experimental and Reference Data\R FP\data_f0.dat
! Format:       2
! Number of background points:     83
! background:  positions   intensity: 
!--------------------------------------
         10.07874        164.50664
         11.17256        157.63377
         12.36068        163.52480
         13.36021        156.65196
         14.19000        153.70644
         15.09524        165.48848
         16.05705        156.65196
         17.09430        166.47032
         18.11268        173.34317
         18.71617        179.23419
         19.16879        180.21603
         20.39462        197.88908
         21.13013        195.92540
         21.90335        206.72560
         22.63885        213.59845
         23.48750        215.56210
         24.21075        218.50763
         24.92739        225.38049
         25.71947        227.34413
         26.30410        231.27150
         27.03960        233.23515
         27.94484        234.21700
         28.88779        239.12617
         29.56671        248.94455
         30.33993        242.07170
         31.15087        255.81741
         32.28241        274.47226
         33.52711        274.47226
         34.80952        280.36328
         35.80905        289.19983
         36.56341        282.32697
         37.35926        296.07269
         38.50967        298.03635
         39.47148        303.92737
         40.20698        304.90921
         41.22536        301.96368
         42.33805        310.80020
         43.48845        318.65491
         45.03489        330.43695
         46.33616        339.27347
         46.81141        345.16449
         47.88638        345.16449
         48.69731        343.20081
         49.58369        350.07367
         50.31919        347.12814
         51.13013        346.14630
         51.95993        346.14630
         52.90288        358.91019
         53.95898        356.94650
         54.90712        352.87189
         55.88779        364.65393
         56.92503        376.43594
         57.83027        378.39963
         58.43376        386.25430
         59.71617        383.30881
         61.22489        376.43594
         62.26214        379.38147
         63.33710        392.14532
         64.32296        391.16351
         65.36021        398.03635
         66.30316        387.23615
         67.32155        398.03635
         68.67940        409.81839
         69.81094        405.89105
         70.69731        397.05453
         71.54597        400.00003
         72.24375        401.96368
         73.43187        413.74573
         74.71429        415.70941
         75.67940        409.81839
         76.86752        413.74573
         78.39510        421.60043
         79.47006        421.60043
         80.45497        423.51266
         81.49222        424.93768
         82.39745        426.36267
         83.20839        427.78769
         84.17020        432.06271
         85.28288        434.91275
         86.52758        434.91275
         87.84772        452.01285
         88.96040        442.03778
         89.92220        434.91275
